"Shalehills,"	2012	:	input	for	MTCLIM	v4.3						
MTCLIM	v4.3	OUTPUT	FILE	:	Mon	Jan	16	16:32:50	2012			
	yday	Tmax	Tmin	Tday	prcp	VPD	srad	daylen	SoilW	SoilT		
		(degC)	(degC)	(degC)	(cm)	(Pa)	(Wm-2)	(s)	(%)	(deg C)		
2008	1	4.44	-2.78	2.46	0.18	162.1754386	86.30588235	32928	21.1425	2.6333		
2008	2	3.89	-5.56	1.29	0.02	187.1368421	100.3705882	32971	21.2499	2.3716		
2008	3	-3.33	-11.11	-5.47	0	101.5438596	116.8176471	33017	21.607	2.0111		
2008	4	-4.44	-10.56	-6.13	0	79.34736842	103.6647059	33066	21.0615	1.4889		
2008	5	3.33	-9.44	-0.18	0.07	213.3263158	172.6529412	33119	20.5872	0.3346		
2008	6	5.56	-0.56	3.88	0.02	153.9578947	78.37058824	33175	20.2551	0.271		
2008	7	7.78	5	7.01	0.06	91.50175439	39.27058824	33234	20.7133	0.8296		
2008	8	18.89	6.11	15.38	0	564.2736842	142.0647059	33296	21.4808	2.3995		
2008	9	19.44	8.33	16.39	0.06	537.6280702	101.0176471	33362	21.2799	4.9207		
2008	10	11.67	-0.56	8.31	0.05	356.7017544	108.9352941	33431	21.1371	6.138		
2008	11	7.78	-0.56	5.49	2.31	221.4175439	94.83529412	33503	21.0297	5.4222		
2008	12	10.56	2.78	8.42	0	250.8	90.61176471	33579	21.444	4.5526		
2008	13	6.11	-2.22	3.82	0	199.2421053	128.7470588	33657	22.2575	4.5511		
2008	14	3.89	-2.22	2.21	0.12	138.4210526	79.46470588	33738	21.3716	3.7009		
2008	15	2.78	-2.78	1.25	0	119.7754386	74.77647059	33822	21.0208	3.1753		
2008	16	-1.11	-2.78	-1.57	0	32.70175439	26.98823529	33909	20.9117	3.0431		
2008	17	0	-3.33	-0.92	0.77	65.66315789	49.90588235	33999	20.6809	2.2758		
2008	18	2.22	-2.22	1	0.13	96.6877193	66.04117647	34092	20.569	2.0973		
2008	19	2.78	-6.67	0.18	0	173.9508772	147.8588235	34187	20.4401	1.8314		
2008	20	-1.11	-12.22	-4.17	0	146.877193	141.9882353	34285	21.3077	1.8171		
2008	21	-10	-13.89	-11.07	0	37.60701754	82.76470588	34386	20.9728	1.1455		
2008	22	-5	-13.89	-7.44	0	98.44210526	169.9823529	34489	20.259	0.3387		
2008	23	2.78	-6.11	0.33	0	167.4526316	132.4941176	34595	19.4908	-0.1162		
2008	24	-2.78	-7.78	-4.15	0	76.32280702	122.1529412	34703	19.3593	-0.245		
2008	25	-2.22	-10	-4.36	0	109.6210526	127.4529412	34814	19.4772	-0.3292		
2008	26	-3.89	-10	-5.57	0.04	82.45614035	112.1529412	34926	18.8844	-0.3207		
2008	27	-2.78	-8.33	-4.31	0	82.82807018	106.1941176	35042	18.1879	-0.2226		
2008	28	-0.56	-5	-1.78	0	80.60350877	91.98235294	35159	18.5252	-0.4557		
2008	29	2.22	-2.22	1	1.4	96.6877193	70.56470588	35278	19.291	-0.377		
2008	30	5.56	-1.11	3.72	0.5	164.3087719	97.56470588	35400	19.7642	-0.2071		
2008	31	0.56	-8.89	-2.04	0	149.9578947	144.4823529	35523	22.3099	-0.0573		
2008	32	1.11	-7.78	-1.33	2.72	149.9017544	143.3588235	35649	22.1431	0.0135		
2008	33	2.78	-2.22	1.4	0	110.245614	103.9588235	35776	21.2792	0.1383		
2008	34	1.11	-5.56	-0.72	0	123.1789474	125.8117647	35905	22.4355	0.3227		
2008	35	6.11	-5	3.06	0.03	238.077193	157.4882353	36036	21.8953	0.2484		
2008	36	5	0.56	3.78	1.03	115.4596491	97.36470588	36169	22.1062	0.405		
2008	37	13.33	3.33	10.58	1.38	351.2280702	127.5117647	36303	22.1916	0.4597		
2008	38	16.67	1.67	12.54	0.01	536.0421053	143.5470588	36440	23.2862	0.9713		
2008	39	3.33	-1.11	2.11	0.06	103.8526316	77.42941176	36577	23.1894	3.2956		
2008	40	2.22	-2.22	1	0.78	96.6877193	80.31764706	36716	21.9435	2.2648		
2008	41	4.44	-1.67	2.76	0.21	143.4385965	105.1705882	36857	21.5883	1.8111		
2008	42	-1.11	-16.67	-5.39	0	170.5473684	178.6705882	36999	21.3417	1.3017		
2008	43	-8.89	-16.67	-11.03	1.95	68.41403509	149.1176471	37143	21.0272	0.816		
2008	44	-3.33	-11.67	-5.63	0.53	106.2385965	156.0176471	37287	20.3899	0.4569		
2008	45	0.56	-7.78	-1.74	0	138.5403509	156.0588235	37433	20.4473	0.2723		
2008	46	2.22	-7.78	-0.53	0	173.5438596	215.3588235	37581	20.6495	0.0949		
2008	47	2.78	-11.11	-1.04	0	213.5157895	183.5058824	37729	21.7276	0.3752		
2008	48	2.22	-10.56	-1.29	0.58	197.9649123	233.1352941	37879	21.5778	0.5089		
2008	49	8.89	-0.56	6.29	0.09	257.7403509	160.3	38029	22.0868	0.7524		
2008	50	8.33	-4.44	4.82	0	295.9298246	180.5705882	38181	22.8822	0.8765		
2008	51	-1.11	-10	-3.56	0	128.9964912	160.1588235	38334	23.2016	0.7065		
2008	52	-3.89	-12.78	-6.33	0.01	106.4491228	162.0470588	38487	21.8117	0.4298		
2008	53	-2.22	-12.78	-5.13	1.06	132.2526316	176.3117647	38642	21.1364	-0.0571		
2008	54	-2.78	-5.56	-3.54	0.06	46.58245614	76.93529412	38798	20.6123	-0.0819		
2008	55	1.67	-8.89	-1.24	0	172.5333333	177.8529412	38954	20.7853	-0.0086		
2008	56	5	-8.89	1.18	0	247.7824561	250.0117647	39111	20.8561	-0.1338		
2008	57	2.78	-5	0.64	0.8	153.2701754	151.5588235	39269	21.0968	0.1372		
2008	58	1.67	-3.33	0.29	0	102.5754386	113.2352941	39428	21.7383	0.0682		
2008	59	-2.22	-11.67	-4.82	1.54	124.0421053	171.2	39587	22.816	0.2247		
2008	60	1.67	-12.22	-2.15	0.38	197.9789474	199.2470588	39747	21.9859	-0.0027		
2008	61	1.67	-5.56	-0.32	0	135.3192982	147.4823529	39907	21.054	-0.3438		
2008	62	4.44	-5.56	1.69	0	200.9473684	177.5647059	40068	20.2656	-0.2307		
2008	63	15.56	1.67	11.74	4.65	483.3684211	195.2058824	40230	20.6655	-0.403		
2008	64	7.78	1.67	6.1	1.32	176.9894737	128.5470588	40392	20.8356	-0.1837		
2008	65	4.44	-2.78	2.46	0	162.1754386	147.6882353	40555	22.8649	-0.0264		
2008	66	7.78	-2.78	4.88	1.4	257.2491228	235.1529412	40718	24.4779	0.4275		
2008	67	7.22	-1.11	4.93	1.64	213.8035088	160.8823529	40882	22.8126	0.5381		
2008	68	3.33	-7.22	0.43	0	192.8140351	188.9529412	41046	22.6999	1.47		
2008	69	0	-6.67	-1.83	0	114.4140351	185.9235294	41210	23.1706	1.4686		
2008	70	6.11	-3.89	3.36	0	223.8807018	183.0235294	41375	23.1051	1.5206		
2008	71	6.11	1.11	4.74	0.01	136.2807018	115.9294118	41540	22.0417	0.9588		
2008	72	4.44	-3.33	2.31	0	170.8210526	162.5941176	41705	21.7589	1.038		
2008	73	13.33	-3.33	8.75	0.31	456.6035088	285.6117647	41870	21.6052	1.986		
2008	74	15	3.89	11.94	0.04	414.0701754	190.0823529	42036	21.4121	1.8045		
2008	75	10	1.11	7.56	0	265.5368421	172.0235294	42202	21.3176	2.8376		
2008	76	5.56	-3.89	2.96	0	208.5403509	235.5	42368	21.8985	4.2072		
2008	77	7.78	-3.89	4.57	0.35	272.2807018	202.7705882	42534	22.0656	4.5548		
2008	78	5.56	2.22	4.64	1.48	93.68421053	89.07647059	42701	21.6621	3.2693		
2008	79	12.78	1.67	9.72	0	362.0140351	198.6647059	42867	21.4542	3.7647		
2008	80	3.89	-2.78	2.06	0	147.677193	152.5588235	43033	22.3855	3.3654		
2008	81	6.11	-2.78	3.67	1.19	207.922807	183.8529412	43200	23.1869	4.1513		
2008	82	5.56	-6.11	2.35	0	235.8736842	211.3882353	43366	22.3073	4.0091		
2008	83	6.11	-5.56	2.9	0	244.554386	276.3705882	43533	21.8986	4.0603		
2008	84	5.56	-4.44	2.81	0	216	196.2882353	43699	22.1158	2.7133		
2008	85	9.44	-3.89	5.78	0	324.4350877	221.0588235	43865	22.7106	2.7688		
2008	86	12.22	1.67	9.32	0.34	339.4175439	260.1411765	44032	22.056	2.3586		
2008	87	6.67	2.22	5.44	0.4	128.1684211	94.77647059	44198	21.784	3.636		
2008	88	7.22	-2.78	4.47	0	240.3929825	180.9352941	44363	21.676	4.7758		
2008	89	7.22	-4.44	4.01	0	262.7508772	262.7470588	44529	22.1839	4.2086		
2008	90	10	-4.44	6.03	0	348.8912281	214.2529412	44695	22.6123	3.8267		
2008	91	13.33	4.44	10.89	0.16	325.3473684	165.1294118	44860	21.9961	3.82		
2008	92	21.11	1.11	15.61	0	779.5157895	224.5470588	45025	21.7406	4.4676		
2008	93	8.33	-2.78	5.28	0.16	274.5263158	257.5764706	45190	21.6354	5.3725		
2008	94	9.44	-2.22	6.24	0.8	302.6736842	196.9823529	45354	21.766	6.5089		
2008	95	11.67	3.33	9.38	0.13	281.5789474	157.5529412	45518	21.5435	5.7371		
2008	96	12.22	4.44	10.08	0	277.5157895	200.7529412	45681	21.6326	4.8681		
2008	97	15	4.44	12.1	0	401.4596491	246.1647059	45845	22.9671	5.2703		
2008	98	8.33	5.56	7.57	0	94.65263158	83.14117647	46007	22.3985	5.9689		
2008	99	14.44	6.11	12.15	0	332.6807018	214.1058824	46169	22.0466	6.6054		
2008	100	16.11	6.11	13.36	0	414.5754386	181.6764706	46331	21.7626	6.0174		
2008	101	20.56	6.67	16.74	0.88	649.7052632	279.9588235	46492	21.6631	7.0093		
2008	102	20	11.67	17.71	0.05	459.0105263	153.7470588	46653	21.5613	7.3927		
2008	103	18.33	3.89	14.36	0.24	581.7052632	217.9941176	46813	21.5359	8.8244		
2008	104	8.33	0.56	6.19	0	218.6315789	158.4705882	46972	22.7129	9.4989		
2008	105	10.56	-2.22	7.04	0	340.6947368	286.3235294	47131	22.5985	9.589		
2008	106	15	0	10.88	0	484.5333333	300.6294118	47289	22.3572	7.5295		
2008	107	20	2.22	15.11	0	701.6982456	310.7411765	47446	21.9613	6.8661		
2008	108	26.11	7.22	20.92	0	1022.021053	305.2411765	47602	21.7444	7.2463		
2008	109	28.33	10.56	23.44	0	1130.484211	294.7764706	47758	21.5923	7.8626		
2008	110	27.22	12.22	23.1	3.33	984.1192982	275.1705882	47912	21.4839	10.7483		
2008	111	15.56	12.78	14.79	0.03	144.8140351	56.19411765	48066	22.8185	10.9023		
2008	112	21.11	11.67	18.51	0	532.8070175	218.0352941	48219	22.8438	11.4083		
2008	113	22.22	10	18.86	0	666.6666667	259.6235294	48370	22.3916	11.6239		
2008	114	23.89	10.56	20.22	0	768.9403509	202.2647059	48521	22.1233	11.5164		
2008	115	22.22	11.11	19.17	0	629.8245614	245.0117647	48671	21.9384	11.756		
2008	116	25	11.11	21.18	2.54	836.3719298	274.8117647	48819	21.7146	11.7285		
2008	117	27.22	10.56	22.64	0	1034.203509	219.6235294	48966	22.3994	12.6156		
2008	118	19.44	7.22	16.08	2.13	568.5824561	195.5235294	49112	23.0452	13.1138		
2008	119	11.11	5	9.43	0	217.0666667	118.1764706	49257	23.8685	11.3107		
2008	120	13.89	2.78	10.83	0	387.2912281	256.6058824	49401	22.7297	10.8609		
2008	121	12.22	3.33	9.78	0	304.245614	219.8764706	49543	22.2213	9.7801		
2008	122	15	3.89	11.94	0	414.0701754	195.1588235	49683	21.9139	9.3523		
2008	123	23.33	9.44	19.51	1.33	761.6350877	282.9588235	49823	21.8222	10.2973		
2008	124	19.44	10	16.85	0.15	484.7017544	169.9705882	49960	22.3131	11.6684		
2008	125	16.67	2.78	12.85	0	516.7719298	293.3235294	50096	23.1512	11.531		
2008	126	20.56	5.56	16.43	0	674.7789474	297.2588235	50231	22.4469	11.0252		
2008	127	22.78	8.33	18.81	0	752.9473684	215.5235294	50363	22.129	11.2377		
2008	128	26.11	12.78	22.44	0.21	870.1122807	198.6705882	50495	21.9092	11.9504		
2008	129	21.11	6.67	17.14	0.99	684.2807018	214.2352941	50624	22.0315	12.9111		
2008	130	12.22	7.78	11	0	179.5649123	85.84705882	50751	23.0018	11.9294		
2008	131	18.33	6.67	15.12	0.28	518.9263158	193.3705882	50877	22.6401	11.4472		
2008	132	16.11	1.11	11.99	2.12	518.3789474	224.9529412	51000	22.2356	10.7297		
2008	133	10	2.22	7.86	0	242.4	146.8411765	51122	23.6347	9.3168		
2008	134	22.22	7.22	18.1	0.12	743.0105263	292.0058824	51241	22.6396	10.2698		
2008	135	21.67	10	18.46	0.01	628.645614	188.7058824	51358	22.2837	10.9538		
2008	136	22.78	8.89	18.96	1.32	738.0280702	210.2647059	51473	22.2878	12.1671		
2008	137	11.11	5.56	9.58	0.25	201.5017544	109.8529412	51586	23.4068	11.2347		
2008	138	18.89	6.67	15.53	0.37	550.5192982	204.7588235	51697	22.7862	10.596		
2008	139	15.56	4.44	12.5	0.05	428.0421053	198.1176471	51805	23.0256	10.5484		
2008	140	12.78	4.44	10.49	0.98	301.1508772	164.1823529	51910	22.5438	9.9998		
2008	141	12.78	6.11	10.94	0.47	256.322807	134.3882353	52014	22.8521	9.421		
2008	142	15	6.11	12.56	0.12	359.3473684	170.1941176	52114	22.8386	9.4271		
2008	143	13.33	6.67	11.5	0	264.9403509	136.1294118	52212	22.6712	12.1018		
2008	144	18.89	6.11	15.38	0	564.2736842	288.2411765	52308	22.5967	9.9667		
2008	145	21.67	6.11	17.39	0	731.9578947	311.5529412	52400	22.6679	10.4907		
2008	146	23.89	9.44	19.92	0	801.9157895	297.1764706	52490	22.3773	9.8593		
2008	147	29.44	13.89	25.17	0	1131.242105	221.8411765	52577	22.0876	10.6767		
2008	148	27.22	7.22	21.72	0	1109.866667	246.9705882	52662	21.6967	11.4906		
2008	149	19.44	6.11	15.78	0	596.3157895	288.1764706	52743	20.6993	12.6299		
2008	150	24.44	8.33	20.01	0	871.8105263	306.9352941	52821	20.2507	12.0058		
2008	151	26.11	12.22	22.29	0.22	889.5859649	209.4941176	52896	19.8558	12.2466		
2008	152	27.22	17.78	24.62	0	745.4877193	156.8117647	52969	19.7186	13.3526		
2008	153	25.56	10	21.28	0	913.1789474	298.6941176	53038	19.471	14.0613		
2008	154	25	13.33	21.79	1.03	757.5298246	250.9529412	53103	18.7162	13.5501		
2008	155	27.78	15	24.26	1.13	930.4982456	195.9588235	53166	18.7477	13.7085		
2008	156	21.11	17.78	20.19	0	232.4	64.67647059	53225	22.3354	14.5396		
2008	157	28.33	19.44	25.89	0	758.1894737	151.3647059	53281	22.6253	15.5299		
2008	158	32.78	20.56	29.42	0	1181.515789	245.8352941	53334	22.0699	16.8797		
2008	159	33.33	23.33	30.58	0	1067.480702	209.8647059	53383	21.369	17.5324		
2008	160	32.22	22.78	29.62	0	969.2842105	201.6176471	53429	20.4239	17.9919		
2008	161	33.89	21.67	30.53	1.2	1251.333333	241.6823529	53471	19.1907	18.3894		
2008	162	32.22	15.56	27.64	0	1357.122807	222.7647059	53510	19.2411	18.0876		
2008	163	28.33	16.11	24.97	0	934.1684211	256.6882353	53546	21.2509	17.4722		
2008	164	30.56	17.78	27.04	0.04	1079.873684	259.1117647	53577	19.4935	17.2305		
2008	165	31.67	19.44	28.31	0.07	1115.017544	185.8294118	53606	18.0234	17.426		
2008	166	25	15.56	22.4	0	661.0736842	165.6647059	53630	17.3196	17.6316		
2008	167	27.22	16.67	24.32	1.49	803.0315789	233.7882353	53651	16.7401	17.3766		
2008	168	26.67	13.89	23.15	0.01	875.8596491	201.7117647	53669	18.1383	16.6444		
2008	169	19.44	13.33	17.76	0.14	352.6877193	157.4294118	53682	21.4856	15.5887		
2008	170	18.89	8.89	16.14	0	487.4385965	181.2058824	53693	19.3977	14.8479		
2008	171	20	11.11	17.56	0	480.1614035	217.4882353	53699	18.0976	14.0601		
2008	172	26.11	13.33	22.6	0.22	849.5789474	269.2705882	53702	17.131	14.5901		
2008	173	28.33	15	24.67	0.81	982.3789474	201.6117647	53701	16.294	15.444		
2008	174	26.67	15.56	23.61	0.11	805.2491228	180.8647059	53696	21.7585	16.2413		
2008	175	25.56	12.78	22.04	0	823.9719298	202.2117647	53688	18.6928	16.1529		
2008	176	25	13.33	21.79	0	757.5298246	255.8352941	53676	17.1203	15.6037		
2008	177	27.22	15	23.86	0.19	879.6982456	195.1470588	53661	16.1135	15.8874		
2008	178	28.33	18.33	25.58	1.16	822.3719298	169.0176471	53641	15.4985	16.7691		
2008	179	26.67	19.44	24.68	0	595.7403509	131.5882353	53619	18.0066	17.3252		
2008	180	28.89	18.89	26.14	0.13	847.0035088	228.7411765	53592	19.9207	17.8698		
2008	181	27.22	17.22	24.47	0.05	774.9263158	176.1176471	53562	17.7713	17.7509		
2008	182	25.56	15.56	22.81	0	708.1122807	238.6352941	53529	16.5006	17.551		
2008	183	22.78	13.33	20.18	0	584.9122807	237.0411765	53491	15.5677	16.9519		
2008	184	27.22	15	23.86	0.02	879.6982456	271.5176471	53451	14.724	16.5797		
2008	185	25.56	18.33	23.57	0.02	561.3684211	139.6	53407	14.0169	16.5041		
2008	186	23.89	17.78	22.21	2.12	450.7157895	121.1411765	53359	13.7165	16.7692		
2008	187	24.44	16.11	22.15	0	587.5438596	159.1235294	53308	20.6167	16.922		
2008	188	27.78	17.22	24.88	0.01	827.3754386	246.6470588	53254	19.2928	17.3752		
2008	189	27.22	18.89	24.93	0	682.4421053	155.1823529	53196	17.4254	18.0149		
2008	190	30.56	18.89	27.35	0.44	1022.140351	255.2823529	53135	16.136	18.607		
2008	191	26.67	16.11	23.76	0	779.2982456	187.2294118	53071	17.9783	18.6778		
2008	192	26.67	15	23.46	0	829.9649123	268.5941176	53004	16.8656	18.4504		
2008	193	28.33	16.67	25.12	0	908.1964912	264.1588235	52933	14.8374	17.8693		
2008	194	31.11	19.44	27.9	0.33	1052.449123	192	52860	13.6611	18.5084		
2008	195	27.78	17.22	24.88	0	827.3754386	187.1647059	52783	13.1781	19.1933		
2008	196	26.67	15.56	23.61	0	805.2491228	260.4235294	52703	12.9453	18.6574		
2008	197	28.33	16.11	24.97	0	934.1684211	270.8764706	52620	12.1315	17.8588		
2008	198	31.11	17.22	27.29	0	1166.105263	281.9058824	52535	11.5294	18.0221		
2008	199	31.67	20	28.46	0.12	1083.508772	187.6529412	52446	11.0591	18.7819		
2008	200	32.22	21.11	29.17	0	1081.25614	179.5470588	52355	10.6858	19.3843		
2008	201	31.67	20	28.46	0.39	1083.508772	248.3352941	52261	10.3483	19.7268		
2008	202	32.22	18.89	28.56	0.38	1208.421053	201.0470588	52164	10.7803	19.3486		
2008	203	29.44	18.33	26.39	0.02	934.6666667	185.3235294	52065	12.3479	19.5527		
2008	204	28.89	19.44	26.29	1.3	814.6315789	165.6529412	51963	11.4023	19.5536		
2008	205	23.33	15	21.04	1.03	552.8491228	160.4470588	51858	16.4119	18.7001		
2008	206	25	14.44	22.1	0	711.6350877	189	51751	19.6218	17.7472		
2008	207	27.78	15.56	24.42	0	906.5894737	269.1529412	51642	18.3331	17.6134		
2008	208	28.33	18.33	25.58	0	822.3719298	175.2470588	51530	15.331	18.1136		
2008	209	27.22	15.56	24.01	0	855.3824561	260.7882353	51417	13.5086	18.8044		
2008	210	28.89	17.22	25.68	0	935.6210526	255.3411765	51300	11.9656	18.2718		
2008	211	30	17.78	26.64	0.52	1021.207018	258.5705882	51182	10.8728	18.6567		
2008	212	29.44	18.33	26.39	0	934.6666667	182.6411765	51062	11.0392	18.6276		
2008	213	28.89	17.78	25.83	0	907.4596491	244.0529412	50939	12.3279	19.3539		
2008	214	28.33	18.89	25.74	0.01	791.0035088	218.2823529	50815	10.7061	19.1589		
2008	215	27.78	16.11	24.57	0	881.4526316	190.3823529	50688	9.6767	19.1935		
2008	216	25.56	15	22.65	0	733.6140351	240.0823529	50560	8.8808	18.5433		
2008	217	27.78	16.67	24.72	0.1	855.0596491	181.4352941	50430	8.4936	17.5625		
2008	218	24.44	19.44	23.07	0.39	394.4982456	94.17058824	50298	8.4686	18.5340342		
2008	219	28.89	16.67	25.53	0.05	962.4561404	191.0058824	50164	8.2546	19.0645986		
2008	220	26.67	14.44	23.31	0.1	853.4947368	194.7352941	50029	8.0406	18.4015		
2008	221	23.89	12.22	20.68	0	712.2807018	192.8588235	49892	7.8266	17.5723		
2008	222	24.44	13.89	21.54	0.02	690.2175439	179.2352941	49754	7.5819	17.1444		
2008	223	25	14.44	22.1	0.04	711.6350877	178.2647059	49614	7.3469	17.0922		
2008	224	21.67	14.44	19.68	0	453.9789474	135.9117647	49472	7.0907	16.6508		
2008	225	24.44	12.78	21.24	0.55	734.6105263	255.8411765	49330	6.9355	16.8491		
2008	226	27.78	13.89	23.96	0	974.7929825	205.1705882	49186	6.7913	16.9032		
2008	227	25.56	15.56	22.81	0	708.1122807	169.5411765	49040	7.2228	17.2583		
2008	228	25.56	12.78	22.04	0	823.9719298	265.9176471	48894	7.1767	17.1926		
2008	229	25.56	14.44	22.5	0	757.9157895	243.1470588	48746	6.9225	16.8084		
2008	230	27.22	15	23.86	0	879.6982456	253.4529412	48597	6.7266	16.8672		
2008	231	29.44	17.22	26.08	0	991.4596491	246.8176471	48446	6.5727	17.3253		
2008	232	26.11	10	21.68	0	957.4807018	292.1117647	48295	6.4125	17.4219		
2008	233	25.56	11.11	21.58	0	880.4421053	277.4588235	48143	6.1739	16.569		
2008	234	29.44	12.78	24.86	0	1168.575439	284.6058824	47990	5.9992	16.206		
2008	235	30	16.11	26.18	0	1099.087719	255.7294118	47836	5.8086	17.3533926		
2008	236	27.78	17.78	25.03	0	798.3508772	207.6941176	47681	5.7758	17.32		
2008	237	31.11	18.89	27.75	0.13	1082.968421	173.3117647	47525	5.743	17.885		
2008	238	27.78	12.78	23.65	0.256919669	1014.603509	268.3058824	47368	5.7931	18.3341		
2008	239	26.11	13.33	22.6	0	849.5789474	246.8411765	47210	5.6276	17.1947		
2008	240	26.67	13.89	23.15	1.931221361	875.8596491	183.2294118	47052	5.4912	16.4924		
2008	241	17.78	15.56	17.17	0.154643927	133.9719298	44.50588235	46893	6.3763	16.2892		
2008	242	21.11	16.67	19.89	0.019685469	298.2175439	79.45294118	46734	8.6357	16.5503		
2008	243	27.22	12.22	23.1	0	984.1192982	267.0470588	46573	9.6661	17.3308		
2008	244	27.22	13.33	23.4	0	945.6491228	254.0647059	46413	9.7839	16.9499		
2008	245	26.67	12.78	22.85	0	917.2561404	253.5823529	46251	9.445	16.7094		
2008	246	29.44	14.44	25.32	0	1110.919298	255.5941176	46089	8.9885	16.6083		
2008	247	30.56	15.56	26.43	0	1179.347368	250.6411765	45927	8.5465	17.011		
2008	248	31.67	16.11	27.39	0	1274.596491	248.9470588	45764	8.0809	17.3619		
2008	249	31.11	20.56	28.21	0.318008268	986.9403509	142.8470588	45600	7.6566	18.0183		
2008	250	22.78	12.78	20.03	0	607.6070175	149.7647059	45437	7.4735	18.2026		
2008	251	25	13.89	21.94	0	735.1508772	211.4882353	45272	7.3346	17.5492		
2008	252	26.67	13.89	23.15	2.472082587	875.8596491	170.9058824	45108	7.0439	17.0298		
2008	253	20	9.44	17.1	0.025357557	537.7473684	156.5705882	44943	15.727	16.8908		
2008	254	21.11	10.56	18.21	0	572.877193	204.7882353	44778	15.9804	15.9164		
2008	255	20.56	13.33	18.57	2.352550719	426.7087719	111.9764706	44613	14.1794	15.5969		
2008	256	21.11	18.33	20.35	0.222390424	197.4105263	46.67058824	44447	18.8159	16.6735		
2008	257	24.44	19.44	23.07	0.011863613	394.4982456	77.36470588	44281	19.3694	17.7593		
